* Measurement data measured by REW V5.20
* Source: Frequency Response Averaged data
* Format: Averaged data produced from Apr 14, Apr 14, Apr 14, Apr 14
* Dated: Apr 14, 2022 4:09:37 PM
* REW Settings:
*  C-weighting compensation: Off
*  Target level: 75.0 dB
* Note: Averaged data produced from Apr 14, Apr 14, Apr 14, Apr 14
* Measurement: L
* Smoothing: None
* Frequency Step: 1/48 octave
* Start Frequency: 20.300 Hz
*
* Freq(Hz)	SPL(dB)	Phase(degrees)
20.299999	100.633453	0
20.600000	100.634743	0
20.900000	100.619164	0
21.200001	100.598106	0
21.400000	100.584610	0
21.799999	100.565887	0
22.000000	100.563065	0
22.400000	100.573090	0
22.700001	100.594627	0
23.000000	100.626114	0
23.299999	100.663986	0
23.600000	100.703789	0
24.000000	100.752495	0
24.299999	100.782387	0
24.700001	100.812256	0
25.000000	100.828735	0
25.400000	100.845917	0
25.799999	100.860550	0
26.200001	100.874031	0
26.500000	100.883614	0
26.900000	100.895500	0
27.200001	100.903122	0
27.600000	100.909019	0
28.000000	100.906403	0
28.500000	100.888062	0
29.000000	100.861610	0
29.500000	100.846756	0
30.000000	100.858788	0
30.400000	100.883621	0
30.700001	100.902931	0
31.100000	100.919312	0
31.500000	100.919525	0
32.000000	100.902878	0
32.500000	100.881470	0
33.000000	100.861710	0
33.500000	100.838539	0
34.000000	100.811646	0
34.500000	100.794449	0
35.000000	100.800034	0
35.500000	100.820358	0
36.000000	100.829720	0
36.500000	100.813805	0
37.000000	100.787773	0
37.500000	100.778625	0
38.200001	100.802872	0
38.700001	100.821167	0
39.500000	100.822189	0
40.000000	100.818596	0
40.599998	100.815155	0
41.200001	100.795670	0
41.799999	100.758461	0
42.500000	100.724098	0
43.099998	100.717583	0
43.700001	100.718719	0
44.400002	100.709526	0
45.000000	100.690498	0
45.500000	100.671303	0
46.200001	100.647751	0
46.799999	100.632912	0
47.500000	100.614235	0
48.200001	100.592781	0
48.700001	100.581863	0
49.400002	100.569962	0
50.000000	100.549026	0
50.799999	100.506393	0
51.500000	100.477844	0
52.200001	100.455566	0
53.000000	100.420868	0
53.799999	100.394325	0
54.500000	100.382927	0
55.200001	100.361519	0
56.000000	100.322777	0
57.000000	100.282074	0
58.000000	100.260132	0
59.000000	100.256294	0
60.000000	100.218315	0
60.799999	100.171829	0
61.500000	100.154739	0
62.200001	100.152313	0
63.000000	100.130615	0
64.000000	100.062881	0
65.000000	100.008110	0
66.000000	99.981934	0
67.000000	99.949829	0
68.000000	99.914375	0
69.000000	99.874901	0
70.000000	99.837036	0
71.000000	99.801888	0
72.000000	99.762245	0
73.000000	99.724838	0
74.000000	99.688042	0
75.000000	99.650581	0
76.199997	99.606766	0
77.500000	99.553368	0
78.800003	99.505424	0
80.000000	99.447777	0
81.199997	99.399803	0
82.500000	99.345779	0
83.800003	99.294411	0
85.000000	99.241623	0
86.199997	99.187134	0
87.500000	99.125961	0
88.500000	99.084167	0
90.000000	99.005547	0
91.199997	98.946060	0
92.500000	98.875031	0
93.800003	98.799118	0
95.000000	98.730141	0
96.199997	98.657356	0
97.500000	98.545029	0
98.800003	98.445320	0
100.000000	98.355835	0
101.500000	98.236443	0
103.000000	98.105583	0
104.400002	97.988441	0
106.000000	97.871452	0
107.500000	97.825241	0
109.000000	97.879082	0
110.599998	98.036209	0
112.000000	98.263557	0
113.800003	98.502541	0
115.000000	98.611000	0
117.199997	98.703804	0
118.000000	98.663841	0
120.599998	98.691429	0
122.000000	98.653091	0
124.099998	98.543564	0
125.000000	98.530380	0
126.500000	98.477837	0
128.000000	98.458534	0
131.500000	98.479401	0
132.000000	98.488678	0
134.000000	98.519669	0
136.000000	98.559341	0
138.000000	98.605232	0
140.000000	98.615936	0
143.000000	98.594322	0
145.000000	98.558823	0
147.500000	98.497604	0
150.000000	98.435631	0
152.500000	98.379776	0
155.000000	98.324356	0
157.500000	98.270569	0
160.000000	98.218979	0
162.500000	98.169350	0
165.000000	98.118767	0
167.500000	98.068375	0
170.000000	98.027870	0
172.500000	97.977821	0
175.000000	97.936714	0
177.500000	97.894432	0
180.000000	97.848793	0
182.500000	97.813675	0
185.000000	97.780823	0
187.500000	97.749825	0
190.000000	97.716064	0
192.500000	97.683479	0
195.000000	97.650208	0
197.500000	97.616760	0
200.000000	97.586975	0
203.000000	97.547668	0
206.000000	97.508751	0
209.000000	97.471985	0
212.000000	97.436996	0
214.000000	97.413086	0
218.000000	97.366386	0
220.000000	97.342743	0
224.000000	97.301430	0
227.000000	97.277618	0
230.000000	97.260506	0
233.000000	97.254944	0
236.000000	97.249008	0
240.000000	97.246399	0
243.000000	97.227173	0
247.000000	97.198128	0
250.000000	97.174400	0
254.000000	97.142052	0
258.000000	97.112434	0
262.000000	97.081810	0
265.000000	97.061058	0
269.000000	97.032501	0
272.000000	97.011620	0
276.000000	96.984596	0
280.000000	96.960052	0
285.000000	96.931152	0
290.000000	96.906136	0
295.000000	96.885941	0
300.000000	96.881943	0
304.000000	96.845802	0
307.000000	96.832939	0
311.000000	96.812088	0
315.000000	96.791878	0
320.000000	96.768738	0
325.000000	96.745857	0
330.000000	96.723099	0
335.000000	96.701576	0
340.000000	96.682510	0
345.000000	96.661598	0
350.000000	96.641327	0
355.000000	96.623703	0
360.000000	96.607750	0
365.000000	96.588295	0
370.000000	96.571968	0
375.000000	96.553787	0
382.000000	96.532074	0
387.000000	96.516563	0
395.000000	96.494972	0
400.000000	96.481598	0
406.000000	96.462776	0
412.000000	96.448593	0
418.000000	96.434555	0
425.000000	96.417152	0
431.000000	96.402527	0
437.000000	96.390694	0
444.000000	96.375435	0
450.000000	96.362465	0
455.000000	96.351105	0
462.000000	96.339401	0
468.000000	96.328926	0
475.000000	96.315720	0
482.000000	96.304489	0
487.000000	96.295570	0
494.000000	96.287033	0
500.000000	96.276970	0
508.000000	96.266632	0
515.000000	96.256416	0
522.000000	96.248169	0
530.000000	96.239548	0
538.000000	96.229980	0
545.000000	96.224335	0
552.000000	96.217506	0
560.000000	96.210457	0
570.000000	96.204086	0
580.000000	96.196091	0
590.000000	96.190292	0
600.000000	96.187485	0
608.000000	96.183701	0
615.000000	96.180977	0
622.000000	96.179794	0
630.000000	96.178642	0
640.000000	96.178673	0
650.000000	96.179535	0
660.000000	96.187469	0
670.000000	96.184151	0
680.000000	96.189178	0
690.000000	96.194458	0
700.000000	96.201630	0
710.000000	96.209625	0
720.000000	96.219345	0
730.000000	96.231949	0
740.000000	96.244354	0
750.000000	96.259193	0
762.000000	96.279732	0
775.000000	96.304260	0
788.000000	96.332970	0
800.000000	96.361923	0
812.000000	96.395935	0
825.000000	96.436554	0
838.000000	96.480331	0
850.000000	96.526649	0
862.000000	96.577675	0
875.000000	96.640663	0
885.000000	96.695183	0
900.000000	96.782112	0
912.000000	96.884605	0
925.000000	96.932510	0
938.000000	96.942047	0
950.000000	96.891998	0
962.000000	96.786057	0
975.000000	96.887802	0
988.000000	97.047981	0
1000.000000	97.177536	0
1015.000000	97.322517	0
1030.000000	97.461891	0
1044.000000	97.586212	0
1060.000000	97.729187	0
1075.000000	97.862228	0
1090.000000	97.995445	0
1106.000000	98.137009	0
1120.000000	98.259720	0
1138.000000	98.418633	0
1150.000000	98.519470	0
1172.000000	98.703613	0
1180.000000	98.769814	0
1206.000000	98.977676	0
1220.000000	99.086029	0
1241.000000	99.242302	0
1250.000000	99.306549	0
1265.000000	99.411552	0
1280.000000	99.512672	0
1315.000000	99.736938	0
1320.000000	99.768539	0
1340.000000	99.885757	0
1360.000000	100.000496	0
1380.000000	100.107574	0
1400.000000	100.216499	0
1430.000000	100.369080	0
1450.000000	100.466522	0
1475.000000	100.587051	0
1500.000000	100.702408	0
1525.000000	100.818703	0
1550.000000	100.932518	0
1575.000000	101.044685	0
1600.000000	101.156708	0
1625.000000	101.268578	0
1650.000000	101.380226	0
1675.000000	101.492416	0
1700.000000	101.604370	0
1725.000000	101.717758	0
1750.000000	101.831039	0
1775.000000	101.946533	0
1800.000000	102.061302	0
1825.000000	102.178116	0
1850.000000	102.295105	0
1875.000000	102.412521	0
1900.000000	102.531639	0
1925.000000	102.650772	0
1950.000000	102.770241	0
1975.000000	102.890839	0
2000.000000	103.012360	0
2030.000000	103.157585	0
2060.000000	103.303268	0
2090.000000	103.447929	0
2120.000000	103.591156	0
2140.000000	103.682961	0
2180.000000	103.860260	0
2200.000000	103.945122	0
2240.000000	104.107307	0
2270.000000	104.222282	0
2300.000000	104.332474	0
2330.000000	104.436699	0
2360.000000	104.534256	0
2400.000000	104.654465	0
2430.000000	104.738945	0
2470.000000	104.840485	0
2500.000000	104.909279	0
2540.000000	104.990425	0
2580.000000	105.060234	0
2620.000000	105.119858	0
2650.000000	105.158386	0
2690.000000	105.202866	0
2720.000000	105.232292	0
2760.000000	105.265884	0
2800.000000	105.294594	0
2850.000000	105.319305	0
2900.000000	105.333633	0
2950.000000	105.339012	0
3000.000000	105.334976	0
3040.000000	105.325897	0
3070.000000	105.316696	0
3110.000000	105.303101	0
3150.000000	105.286873	0
3200.000000	105.264275	0
3250.000000	105.237335	0
3300.000000	105.208244	0
3350.000000	105.177368	0
3400.000000	105.142204	0
3450.000000	105.104301	0
3500.000000	105.064957	0
3550.000000	105.025146	0
3600.000000	104.985359	0
3650.000000	104.947235	0
3700.000000	104.916115	0
3750.000000	104.889580	0
3820.000000	104.866638	0
3870.000000	104.855995	0
3950.000000	104.837173	0
4000.000000	104.821274	0
4060.000000	104.794632	0
4120.000000	104.763176	0
4180.000000	104.726776	0
4250.000000	104.682617	0
4310.000000	104.644646	0
4370.000000	104.609207	0
4440.000000	104.573158	0
4500.000000	104.547539	0
4550.000000	104.532272	0
4620.000000	104.515007	0
4680.000000	104.503365	0
4750.000000	104.490387	0
4820.000000	104.476799	0
4870.000000	104.464592	0
4940.000000	104.448936	0
5000.000000	104.437492	0
5080.000000	104.424118	0
5150.000000	104.416161	0
5220.000000	104.411018	0
5300.000000	104.408455	0
5380.000000	104.407715	0
5450.000000	104.407707	0
5520.000000	104.404518	0
5600.000000	104.392662	0
5700.000000	104.367241	0
5800.000000	104.325500	0
5900.000000	104.269661	0
6000.000000	104.200905	0
6080.000000	104.139359	0
6150.000000	104.079117	0
6220.000000	104.020538	0
6300.000000	103.965538	0
6400.000000	103.934250	0
6500.000000	103.895752	0
6600.000000	103.851990	0
6700.000000	103.822327	0
6800.000000	103.815231	0
6900.000000	103.832657	0
7000.000000	103.875893	0
7100.000000	103.955803	0
7200.000000	104.078506	0
7300.000000	104.240204	0
7400.000000	104.428085	0
7500.000000	104.638153	0
7620.000000	104.923203	0
7750.000000	105.268456	0
7880.000000	105.645599	0
8000.000000	106.007118	0
8120.000000	106.320236	0
8250.000000	106.449791	0
8380.000000	106.136604	0
8500.000000	105.347748	0
8620.000000	104.151108	0
8750.000000	102.612801	0
8850.000000	101.390350	0
9000.000000	99.629036	0
9120.000000	98.332443	0
9250.000000	97.042053	0
9380.000000	95.859100	0
9500.000000	94.854622	0
9620.000000	93.917328	0
9750.000000	92.980606	0
9880.000000	92.108994	0
10000.000000	91.386505	0
10150.000000	90.605591	0
10300.000000	90.020592	0
10440.000000	89.775360	0
10600.000000	89.983154	0
10750.000000	90.699364	0
10900.000000	91.731384	0
11060.000000	92.791206	0
11200.000000	93.400520	0
11380.000000	93.675682	0
11500.000000	93.627655	0
11720.000000	93.331787	0
11800.000000	93.205872	0
12060.000000	92.855171	0
12200.000000	92.732147	0
12410.000000	92.658417	0
12500.000000	92.664841	0
12650.000000	92.733192	0
12800.000000	92.886124	0
13150.000000	93.538658	0
13200.000000	93.671783	0
13400.000000	94.306511	0
13600.000000	95.135719	0
13800.000000	96.182899	0
14000.000000	97.456146	0
14300.000000	99.902161	0
14500.000000	101.917000	0
14750.000000	104.177101	0
15000.000000	104.358841	0
15250.000000	102.454895	0
15500.000000	100.315720	0
15750.000000	98.547432	0
16000.000000	97.157486	0
16250.000000	95.991928	0
16500.000000	94.878250	0
16750.000000	93.704483	0
17000.000000	92.407379	0
17250.000000	90.962990	0
17500.000000	89.423126	0
17750.000000	87.859749	0
18000.000000	86.305046	0
18250.000000	84.846420	0
18500.000000	83.457565	0
18750.000000	82.189224	0
19000.000000	81.041290	0
19250.000000	79.819580	0
19500.000000	78.483025	0
19750.000000	76.734261	0
